# Date: Thu Nov 9 15:43:33 2023
# LED: 1
#Wavelength	#Inital reflectance [%]	#Final reflectance [%]
91.0096	0	0
91.2522	0	0
91.4948	0	0
91.7374	0	0
91.98	0	0
92.2226	0	0
92.4651	0	0
92.7076	0	0
92.9501	0	0
93.1925	0	0
93.4349	0	0
93.6773	0	0
93.9197	0	0
94.1621	0	0
94.4044	0	0
94.6467	0	0
94.889	0	0
95.1312	0	0
95.3734	0	0
95.6156	0	0
95.8578	0	0
96.0999	0	0
96.3421	0	0
96.5842	0	0
96.8262	0	0
97.0683	0	0
97.3103	0	0
97.5523	0	0
97.7943	0	0
98.0362	0	0
98.2782	0	0
98.5201	0	0
98.7619	0	0
99.0038	0	0
99.2456	0	0
99.4874	0	0
99.7292	0	0
99.9709	0	0
100.213	0	0
100.454	0	0
100.696	0	0
100.938	0	0
101.179	0	0
101.421	0	0
101.662	0	0
101.904	0	0
102.146	0	0
102.387	0	0
102.629	0	0
102.87	0	0
103.111	0	0
103.353	0	0
103.594	0	0
103.835	0	0
104.077	0	0
104.318	0	0
104.559	0	0
104.801	0	0
105.042	0	0
105.283	0	0
105.524	0	0
105.765	0	0
106.006	0	0
106.248	0	0
106.489	0	0
106.73	0	0
106.971	0	0
107.212	0	0
107.453	0	0
107.694	0	0
107.935	0	0
108.175	0	0
108.416	0	0
108.657	0	0
108.898	0	0
109.139	0	0
109.38	0	0
109.62	0	0
109.861	0	0
110.102	0	0
110.342	0	0
110.583	0	0
110.824	0	0
111.064	0	0
111.305	0	0
111.545	0	0
111.786	0	0
112.026	0	0
112.267	0	0
112.507	0	0
112.748	0	0
112.988	0	0
113.228	0	0
113.469	0	0
113.709	0	0
113.949	0	0
114.19	0	0
114.43	0	0
114.67	0	0
114.91	0	0
115.151	0	0
115.391	0	0
115.631	0	0
115.871	0	0
116.111	0	0
116.351	0	0
116.591	0	0
116.831	0	0
117.071	0	0
117.311	0	0
117.551	0	0
117.791	0	0
118.031	0	0
118.27	0	0
118.51	0	0
118.75	0	0
118.99	0	0
119.23	0	0
119.469	0	0
119.709	0	0
119.949	0	0
120.188	0	0
120.428	0	0
120.667	0	0
120.907	0	0
121.147	0	0
121.386	0	0
121.626	0	0
121.865	0	0
122.104	0	0
122.344	0	0
122.583	0	0
122.823	0	0
123.062	0	0
123.301	0	0
123.541	0	0
123.78	0	0
124.019	0	0
124.258	0	0
124.498	0	0
124.737	0	0
124.976	0	0
125.215	0	0
125.454	0	0
125.693	0	0
125.932	0	0
126.171	0	0
126.41	0	0
126.649	0	0
126.888	0	0
127.127	0	0
127.366	0	0
127.605	0	0
127.844	0	0
128.082	0	0
128.321	0	0
128.56	0	0
128.799	0	0
129.037	0	0
129.276	0	0
129.515	0	0
129.753	0	0
129.992	0	0
130.231	0	0
130.469	0	0
130.708	0	0
130.946	0	0
131.185	0	0
131.423	0	0
131.662	0	0
131.9	0	0
132.138	0	0
132.377	0	0
132.615	0	0
132.853	0	0
133.092	0	0
133.33	0	0
133.568	0	0
133.806	0	0
134.045	0	0
134.283	0	0
134.521	0	0
134.759	0	0
134.997	0	0
135.235	0	0
135.473	0	0
135.711	0	0
135.949	0	0
136.187	0	0
136.425	0	0
136.663	0	0
136.901	0	0
137.139	0	0
137.377	0	0
137.614	0	0
137.852	0	0
138.09	0	0
138.328	0	0
138.565	0	0
138.803	0	0
139.041	0	0
139.278	0	0
139.516	0	0
139.754	0	0
139.991	0	0
140.229	0	0
140.466	0	0
140.704	0	0
140.941	0	0
141.179	0	0
141.416	0	0
141.653	0	0
141.891	0	0
142.128	0	0
142.365	0	0
142.603	0	0
142.84	0	0
143.077	0	0
143.314	0	0
143.552	0	0
143.789	0	0
144.026	0	0
144.263	0	0
144.5	0	0
144.737	0	0
144.974	0	0
145.211	0	0
145.448	0	0
145.685	0	0
145.922	0	0
146.159	0	0
146.396	0	0
146.633	0	0
146.869	0	0
147.106	0	0
147.343	0	0
147.58	0	0
147.817	0	0
148.053	0	0
148.29	0	0
148.527	0	0
148.763	0	0
149	0	0
149.236	0	0
149.473	0	0
149.71	0	0
149.946	0	0
150.182	0	0
150.419	0	0
150.655	0	0
150.892	0	0
151.128	0	0
151.365	0	0
151.601	0	0
151.837	0	0
152.073	0	0
152.31	0	0
152.546	0	0
152.782	0	0
153.018	0	0
153.254	0	0
153.491	0	0
153.727	0	0
153.963	0	0
154.199	0	0
154.435	0	0
154.671	0	0
154.907	0	0
155.143	0	0
155.379	0	0
155.615	0	0
155.851	0	0
156.086	0	0
156.322	0	0
156.558	0	0
156.794	0	0
157.03	0	0
157.265	0	0
157.501	0	0
157.737	0	0
157.972	0	0
158.208	0	0
158.444	0	0
158.679	0	0
158.915	0	0
159.15	0	0
159.386	0	0
159.621	0	0
159.857	0	0
160.092	0	0
160.328	0	0
160.563	0	0
160.798	0	0
161.034	0	0
161.269	0	0
161.504	0	0
161.739	0	0
161.975	0	0
162.21	0	0
162.445	0	0
162.68	0	0
162.915	0	0
163.15	0	0
163.385	0	0
163.621	0	0
163.856	0	0
164.091	0	0
164.326	0	0
164.561	0	0
164.795	0	0
165.03	0	0
165.265	0	0
165.5	0	0
165.735	0	0
165.97	0	0
166.204	0	0
166.439	0	0
166.674	0	0
166.909	0	0
167.143	0	0
167.378	0	0
167.613	0	0
167.847	0	0
168.082	0	0
168.316	0	0
168.551	0	0
168.785	0	0
169.02	0	0
169.254	0	0
169.489	0	0
169.723	0	0
169.958	0	0
170.192	0	0
170.426	0	0
170.66	0	0
170.895	0	0
171.129	0	0
171.363	0	0
171.597	0	0
171.832	0	0
172.066	0	0
172.3	0	0
172.534	0	0
172.768	0	0
173.002	0	0
173.236	0	0
173.47	0	0
173.704	0	0
173.938	0	0
174.172	0	0
174.406	0	0
174.64	0	0
174.874	0	0
175.107	0	0
175.341	0	0
175.575	0	0
175.809	0	0
176.042	0	0
176.276	0	0
176.51	0	0
176.743	0	0
176.977	0	0
177.211	0	0
177.444	0	0
177.678	0	0
177.911	0	0
178.145	0	0
178.378	0	0
178.612	0	0
178.845	0	0
179.079	0	0
179.312	0	0
179.545	0	0
179.779	0	0
180.012	0	0
180.245	0	0
180.478	0	0
180.712	0	0
180.945	0	0
181.178	0	0
181.411	0	0
181.644	0	0
181.877	0	0
182.111	0	0
182.344	0	0
182.577	0	0
182.81	0	0
183.043	0	0
183.275	0	0
183.508	0	0
183.741	0	0
183.974	0	0
184.207	0	0
184.44	0	0
184.673	0	0
184.905	0	0
185.138	0	0
185.371	0	0
185.604	0	0
185.836	0	0
186.069	0	0
186.302	0	0
186.534	0	0
186.767	0	0
186.999	0	0
187.232	0	0
187.464	0	0
187.697	0	0
187.929	0	0
188.162	0	0
188.394	0	0
188.626	0	0
188.859	0	0
189.091	0	0
189.323	0	0
189.556	0	0
189.788	0	0
190.02	0	0
190.252	0	0
190.484	0	0
190.717	0	0
190.949	0	0
191.181	0	0
191.413	0	0
191.645	0	0
191.877	0	0
192.109	0	0
192.341	0	0
192.573	0	0
192.805	0	0
193.037	0	0
193.268	0	0
193.5	0	0
193.732	0	0
193.964	0	0
194.196	0	0
194.427	0	0
194.659	0	0
194.891	0	0
195.123	0	0
195.354	0	0
195.586	0	0
195.817	0	0
196.049	0	0
196.281	0	0
196.512	0	0
196.744	0	0
196.975	0	0
197.206	0	0
197.438	0	0
197.669	0	0
197.901	0	0
198.132	0	0
198.363	0	0
198.595	0	0
198.826	0	0
199.057	0	0
199.288	0	0
199.519	0	0
199.751	0	0
199.982	0	0
200.213	0	0
200.444	0	0
200.675	0	0
200.906	0	0
201.137	0	0
201.368	0	0
201.599	0	0
201.83	0	0
202.061	0	0
202.292	0	0
202.523	0	0
202.754	0	0
202.984	0	0
203.215	0	0
203.446	0	0
203.677	0	0
203.907	0	0
204.138	0	0
204.369	0	0
204.599	0	0
204.83	0	0
205.061	0	0
205.291	0	0
205.522	0	0
205.752	0	0
205.983	0	0
206.213	0	0
206.444	0	0
206.674	0	0
206.904	0	0
207.135	0	0
207.365	0	0
207.595	0	0
207.826	0	0
208.056	0	0
208.286	0	0
208.516	0	0
208.747	0	0
208.977	0	0
209.207	0	0
209.437	0	0
209.667	0	0
209.897	0	0
210.127	0	0
210.357	0	0
210.587	0	0
210.817	0	0
211.047	0	0
211.277	0	0
211.507	0	0
211.737	0	0
211.967	0	0
212.196	0	0
212.426	0	0
212.656	0	0
212.886	0	0
213.115	0	0
213.345	0	0
213.575	0	0
213.804	0	0
214.034	0	0
214.264	0	0
214.493	0	0
214.723	0	0
214.952	0	0
215.182	0	0
215.411	0	0
215.641	0	0
215.87	0	0
216.099	0	0
216.329	0	0
216.558	0	0
216.787	0	0
217.017	0	0
217.246	0	0
217.475	0	0
217.704	0	0
217.934	0	0
218.163	0	0
218.392	0	0
218.621	0	0
218.85	0	0
219.079	0	0
219.308	0	0
219.537	0	0
219.766	0	0
219.995	0	0
220.224	0	0
220.453	0	0
220.682	0	0
220.911	0	0
221.14	0	0
221.368	0	0
221.597	0	0
221.826	0	0
222.055	0	0
222.283	0	0
222.512	0	0
222.741	0	0
222.969	0	0
223.198	0	0
223.426	0	0
223.655	0	0
223.884	0	0
224.112	0	0
224.341	0	0
224.569	0	0
224.797	0	0
225.026	0	0
225.254	0	0
225.483	0	0
225.711	0	0
225.939	0	0
226.168	0	0
226.396	0	0
226.624	0	0
226.852	0	0
227.08	0	0
227.309	0	0
227.537	0	0
227.765	0	0
227.993	0	0
228.221	0	0
228.449	0	0
228.677	0	0
228.905	0	0
229.133	0	0
229.361	0	0
229.589	0	0
229.817	0	0
230.045	0	0
230.272	0	0
230.5	0	0
230.728	0	0
230.956	0	0
231.183	0	0
231.411	0	0
231.639	0	0
231.866	0	0
232.094	0	0
232.322	0	0
232.549	0	0
232.777	0	0
233.004	0	0
233.232	0	0
233.459	0	0
233.687	0	0
233.914	0	0
234.142	0	0
234.369	0	0
234.596	0	0
234.824	0	0
235.051	0	0
235.278	0	0
235.506	0	0
235.733	0	0
235.96	0	0
236.187	0	0
236.414	0	0
236.641	0	0
236.869	0	0
237.096	0	0
237.323	0	0
237.55	0	0
237.777	0	0
238.004	0	0
238.231	0	0
238.458	0	0
238.685	0	0
238.911	0	0
239.138	0	0
239.365	0	0
239.592	0	0
239.819	0	0
240.045	0	0
240.272	0	0
240.499	0	0
240.726	0	0
240.952	0	0
241.179	0	0
241.405	0	0
241.632	0	0
241.859	0	0
242.085	0	0
242.312	0	0
242.538	0	0
242.764	0	0
242.991	0	0
243.217	0	0
243.444	0	0
243.67	0	0
243.896	0	0
244.123	0	0
244.349	0	0
244.575	0	0
244.801	0	0
245.028	0	0
245.254	0	0
245.48	0	0
245.706	0	0
245.932	0	0
246.158	0	0
246.384	0	0
246.61	0	0
246.836	0	0
247.062	0	0
247.288	0	0
247.514	0	0
247.74	0	0
247.966	0	0
248.192	0	0
248.418	0	0
248.643	0	0
248.869	0	0
249.095	0	0
249.321	0	0
249.546	0	0
249.772	0	0
249.998	0	0
250.223	0	0
250.449	0	0
250.675	0	0
250.9	0	0
251.126	0	0
251.351	0	0
251.577	0	0
251.802	0	0
252.027	0	0
252.253	0	0
252.478	0	0
252.704	0	0
252.929	0	0
253.154	0	0
253.379	0	0
253.605	0	0
253.83	0	0
254.055	0	0
254.28	0	0
254.505	0	0
254.731	0	0
254.956	0	0
255.181	0	0
255.406	0	0
255.631	0	0
255.856	0	0
256.081	0	0
256.306	0	0
256.531	0	0
256.756	0	0
256.98	0	0
257.205	0	0
257.43	0	0
257.655	0	0
257.88	0	0
258.104	0	0
258.329	0	0
258.554	0	0
258.779	0	0
259.003	0	0
259.228	0	0
259.452	0	0
259.677	0	0
259.902	0	0
260.126	0	0
260.351	0	0
260.575	0	0
260.799	0	0
261.024	0	0
261.248	0	0
261.473	0	0
261.697	0	0
261.921	0	0
262.146	0	0
262.37	0	0
262.594	0	0
262.818	0	0
263.043	0	0
263.267	0	0
263.491	0	0
263.715	0	0
263.939	0	0
264.163	0	0
264.387	0	0
264.611	0	0
264.835	0	0
265.059	0	0
265.283	0	0
265.507	0	0
265.731	0	0
265.955	0	0
266.179	0	0
266.402	0	0
266.626	0	0
266.85	0	0
267.074	0	0
267.298	0	0
267.521	0	0
267.745	0	0
267.969	0	0
268.192	0	0
268.416	0	0
268.639	0	0
268.863	0	0
269.086	0	0
269.31	0	0
269.533	0	0
269.757	0	0
269.98	0	0
270.204	0	0
270.427	0	0
270.65	0	0
270.874	0	0
271.097	0	0
271.32	0	0
271.543	0	0
271.767	0	0
271.99	0	0
272.213	0	0
272.436	0	0
272.659	0	0
272.882	0	0
273.105	0	0
273.328	0	0
273.551	0	0
273.774	0	0
273.997	0	0
274.22	0	0
274.443	0	0
274.666	0	0
274.889	0	0
275.112	0	0
275.335	0	0
275.557	0	0
275.78	0	0
276.003	0	0
276.226	0	0
276.448	0	0
276.671	0	0
276.894	0	0
277.116	0	0
277.339	0	0
277.561	0	0
277.784	0	0
278.007	0	0
278.229	0	0
278.452	0	0
278.674	0	0
278.896	0	0
279.119	0	0
279.341	0	0
279.563	0	0
279.786	0	0
280.008	0	0
280.23	0	0
280.453	0	0
280.675	0	0
280.897	0	0
281.119	0	0
281.341	0	0
281.563	0	0
281.785	0	0
282.008	0	0
282.23	0	0
282.452	0	0
282.674	0	0
282.896	0	0
283.117	0	0
283.339	0	0
283.561	0	0
283.783	0	0
284.005	0	0
284.227	0	0
284.449	0	0
284.67	0	0
284.892	0	0
285.114	0	0
285.336	0	0
285.557	0	0
285.779	0	0
286	0	0
286.222	0	0
286.444	0	0
286.665	0	0
286.887	0	0
287.108	0	0
287.33	0	0
287.551	0	0
287.772	0	0
287.994	0	0
288.215	0	0
288.437	0	0
288.658	0	0
288.879	0	0
289.1	0	0
289.322	0	0
289.543	0	0
289.764	0	0
289.985	0	0
290.206	0	0
290.427	0	0
290.649	0	0
290.87	0	0
291.091	0	0
291.312	0	0
291.533	0	0
291.754	0	0
291.974	0	0
292.195	0	0
292.416	0	0
292.637	0	0
292.858	0	0
293.079	0	0
293.3	0	0
293.52	0	0
293.741	0	0
293.962	0	0
294.182	0	0
294.403	0	0
294.624	0	0
294.844	0	0
295.065	0	0
295.286	0	0
295.506	0	0
295.727	0	0
295.947	0	0
296.168	0	0
296.388	0	0
296.608	0	0
296.829	0	0
297.049	0	0
297.269	0	0
297.49	0	0
297.71	0	0
297.93	0	0
298.151	0	0
298.371	0	0
298.591	0	0
298.811	0	0
299.031	0	0
299.251	0	0
299.471	0	0
299.691	0	0
299.911	0	0
300.132	0	0
300.352	0	0
300.571	0	0
300.791	0	0
301.011	0	0
301.231	0	0
301.451	0	0
301.671	0	0
301.891	0	0
302.11	0	0
302.33	0	0
302.55	0	0
302.77	0	0
302.989	0	0
303.209	0	0
303.429	0	0
303.648	0	0
303.868	0	0
304.087	0	0
304.307	0	0
304.526	0	0
304.746	0	0
304.965	0	0
305.185	0	0
305.404	0	0
305.624	0	0
305.843	0	0
306.062	0	0
306.282	0	0
306.501	0	0
306.72	0	0
306.939	0	0
307.159	0	0
307.378	0	0
307.597	0	0
307.816	0	0
308.035	0	0
308.254	0	0
308.473	0	0
308.692	0	0
308.911	0	0
309.13	0	0
309.349	0	0
309.568	0	0
309.787	0	0
310.006	0	0
310.225	0	0
310.444	0	0
310.662	0	0
310.881	0	0
311.1	0	0
311.319	0	0
311.537	0	0
311.756	0	0
311.975	0	0
312.193	0	0
312.412	0	0
312.631	0	0
312.849	0	0
313.068	0	0
313.286	0	0
313.505	0	0
313.723	0	0
313.941	0	0
314.16	0	0
314.378	0	0
314.597	0	0
314.815	0	0
315.033	0	0
315.252	0	0
315.47	0	0
315.688	0	0
315.906	0	0
316.124	0	0
316.343	0	0
316.561	0	0
316.779	0	0
316.997	0	0
317.215	0	0
317.433	0	0
317.651	0	0
317.869	0	0
318.087	0	0
318.305	0	0
318.523	0	0
318.741	0	0
318.958	0	0
319.176	0	0
319.394	0	0
319.612	0	0
319.83	0	0
320.047	0	0
320.265	0	0
320.483	0	0
320.7	0	0
320.918	0	0
321.136	0	0
321.353	0	0
321.571	0	0
321.788	0	0
322.006	0	0
322.223	0	0
322.441	0	0
322.658	0	0
322.875	0	0
323.093	0	0
323.31	0	0
323.528	0	0
323.745	0	0
323.962	0	0
324.179	0	0
324.397	0	0
324.614	0	0
324.831	0	0
325.048	0	0
325.265	0	0
325.482	0	0
325.699	0	0
325.916	0	0
326.133	0	0
326.35	0	0
326.567	0	0
326.784	0	0
327.001	0	0
327.218	0	0
327.435	0	0
327.652	0	0
327.869	0	0
328.086	0	0
328.302	0	0
328.519	0	0
328.736	0	0
328.953	0	0
329.169	0	0
329.386	0	0
329.602	0	0
329.819	0	0
330.036	0	0
330.252	0	0
330.469	0	0
330.685	0	0
330.902	0	0
331.118	0	0
331.335	0	0
331.551	0	0
331.767	0	0
331.984	0	0
332.2	0	0
332.416	0	0
332.633	0	0
332.849	0	0
333.065	0	0
333.281	0	0
333.497	0	0
333.714	0	0
333.93	0	0
334.146	0	0
334.362	0	0
334.578	0	0
334.794	0	0
335.01	0	0
335.226	0	0
335.442	0	0
335.658	0	0
335.874	0	0
336.09	0	0
336.305	0	0
336.521	0	0
336.737	0	0
336.953	0	0
337.168	0	0
337.384	0	0
337.6	0	0
337.816	0	0
338.031	0	0
338.247	0	0
338.462	0	0
338.678	0	0
338.894	0	0
339.109	0	0
339.325	0	0
339.54	0	0
339.755	0	0
339.971	0	0
340.186	0	0
340.402	0	0
340.617	0	0
340.832	0	0
341.048	0	0
341.263	0	0
341.478	0	0
341.693	0	0
341.909	0	0
342.124	0	0
342.339	0	0
342.554	0	0
342.769	0	0
342.984	0	0
343.199	0	0
343.414	0	0
343.629	0	0
343.844	0	0
344.059	0	0
344.274	0	0
344.489	0	0
344.704	0	0
344.919	0	0
345.133	0	0
345.348	0	0
345.563	0	0
345.778	0	0
345.992	0	0
346.207	0	0
346.422	0	0
346.636	0	0
346.851	0	0
347.066	0	0
347.28	0	0
347.495	0	0
347.709	0	0
347.924	0	0
348.138	0	0
348.353	0	0
348.567	0	0
348.782	0	0
348.996	0	0
349.21	0	0
349.425	0	0
349.639	0	0
349.853	0	0
350.067	0	0
350.282	0	0
350.496	0	0
350.71	0	0
350.924	0	0
351.138	0	0
351.352	0	0
351.566	0	0
351.78	0	0
351.994	0	0
352.208	0	0
352.422	0	0
352.636	0	0
352.85	0	0
353.064	0	0
353.278	0	0
353.492	0	0
353.706	0	0
353.919	0	0
354.133	0	0
354.347	0	0
354.561	0	0
354.774	0	0
354.988	0	0
355.202	0	0
355.415	0	0
355.629	0	0
355.842	0	0
356.056	0	0
356.269	0	0
356.483	0	0
356.696	0	0
356.91	0	0
357.123	0	0
357.337	0	0
357.55	0	0
357.763	0	0
357.977	0	0
358.19	0	0
358.403	0	0
358.616	0	0
358.83	0	0
359.043	0	0
359.256	0	0
359.469	0	0
359.682	0	0
359.895	0	0
360.108	0	0
360.321	0	0
360.534	0	0
360.747	0	0
360.96	0	0
361.173	0	0
361.386	0	0
361.599	0	0
361.812	0	0
362.025	0	0
362.238	0	0
362.45	0	0
362.663	0	0
362.876	0	0
363.089	0	0
363.301	0	0
363.514	0	0
363.727	0	0
363.939	0	0
364.152	0	0
364.364	0	0
364.577	0	0
364.789	0	0
365.002	0	0
365.214	0	0
365.427	0	0
365.639	0	0
365.852	0	0
366.064	0	0
366.276	0	0
366.489	0	0
366.701	0	0
366.913	0	0
367.125	0	0
367.338	0	0
367.55	0	0
367.762	0	0
367.974	0	0
368.186	0	0
368.398	0	0
368.61	0	0
368.822	0	0
369.034	0	0
369.246	0	0
369.458	0	0
369.67	0	0
369.882	0	0
370.094	0	0
370.306	0	0
370.518	0	0
370.73	0	0
370.941	0	0
371.153	0	0
371.365	0	0
371.577	0	0
371.788	0	0
372	0	0
372.212	0	0
372.423	0	0
372.635	0	0
372.846	0	0
373.058	0	0
373.269	0	0
373.481	0	0
373.692	0	0
373.904	0	0
374.115	0	0
374.327	0	0
374.538	0	0
374.749	0	0
374.961	0	0
375.172	0	0
375.383	0	0
375.594	0	0
375.805	0	0
376.017	0	0
376.228	0	0
376.439	0	0
376.65	0	0
376.861	0	0
377.072	0	0
377.283	0	0
377.494	0	0
377.705	0	0
377.916	0	0
378.127	0	0
378.338	0	0
378.549	0	0
378.76	0	0
378.971	0	0
379.181	0	0
379.392	0	0
379.603	0	0
379.814	0	0
380.024	0	0
380.235	0	0
380.446	0	0
380.656	0	0
380.867	0	0
381.078	0	0
381.288	0	0
381.499	0	0
381.709	0	0
381.92	0	0
382.13	0	0
382.34	0	0
382.551	0	0
382.761	0	0
382.972	0	0
383.182	0	0
383.392	0	0
383.603	0	0
383.813	0	0
384.023	0	0
384.233	0	0
384.443	0	0
384.654	0	0
384.864	0	0
385.074	0	0
385.284	0	0
385.494	0	0
385.704	0	0
385.914	0	0
386.124	0	0
386.334	0	0
386.544	0	0
386.754	0	0
386.964	0	0
387.173	0	0
387.383	0	0
387.593	0	0
387.803	0	0
388.013	0	0
388.222	0	0
388.432	0	0
388.642	0	0
388.851	0	0
389.061	0	0
389.271	0	0
389.48	0	0
389.69	0	0
389.899	0	0
390.109	0	0
390.318	0	0
390.528	0	0
390.737	0	0
390.947	0	0
391.156	0	0
391.365	0	0
391.575	0	0
391.784	0	0
391.993	0	0
392.202	0	0
392.412	0	0
392.621	0	0
392.83	0	0
393.039	0	0
393.248	0	0
393.457	0	0
393.666	0	0
393.876	0	0
394.085	0	0
394.294	0	0
394.503	0	0
394.711	0	0
394.92	0	0
395.129	0	0
395.338	0	0
395.547	0	0
395.756	0	0
395.965	0	0
396.173	0	0
396.382	0	0
396.591	0	0
396.8	0	0
397.008	0	0
397.217	0	0
397.426	0	0
397.634	0	0
397.843	0	0
398.051	0	0
398.26	0	0
398.468	0	0
398.677	0	0
398.885	0	0
399.094	0	0
399.302	0	0
399.51	0	0
399.719	0	0
399.927	0	0
400.135	0	0
400.344	0	0
400.552	0	0
400.76	0	0
400.968	0	0
401.176	0	0
401.385	0	0
401.593	0	0
401.801	0	0
402.009	0	0
402.217	0	0
402.425	0	0
402.633	0	0
402.841	0	0
403.049	0	0
403.257	0	0
403.465	0	0
403.673	0	0
403.88	0	0
404.088	0	0
404.296	0	0
404.504	0	0
404.712	0	0
404.919	0	0
405.127	0	0
405.335	0	0
405.542	0	0
405.75	0	0
405.958	0	0
406.165	0	0
406.373	0	0
406.58	0	0
406.788	0	0
406.995	0	0
407.203	0	0
407.41	0	0
407.617	0	0
407.825	0	0
408.032	0	0
408.239	35.2357	34.2794
408.447	33.5116	34.4129
408.654	35.491	32.6251
408.861	34.0483	34.1341
409.068	37.6362	33.9309
409.276	35.5256	35.7672
409.483	36.0831	34.9901
409.69	36.5571	32.3219
409.897	38.0962	34.2515
410.104	36.7576	34.9461
410.311	36.2161	35.0606
410.518	37.4292	35.3626
410.725	37.3866	36.1672
410.932	36.0099	34.8789
411.139	37.1127	38.4071
411.346	37.1688	36.459
411.553	38.2581	36.1301
411.76	37.8313	36.7146
411.967	37.7028	35.2694
412.174	37.6006	37.6181
412.381	38.9141	37.4398
412.587	36.8359	36.8195
412.794	39.5104	37.8615
413.001	39.4479	37.9755
413.208	40.3239	38.1033
413.414	41.9046	37.6737
413.621	40.9697	37.6806
413.828	39.6962	37.9474
414.034	41.2253	38.8629
414.241	38.7044	37.2118
414.447	40.2332	37.8144
414.654	40.0625	37.6832
414.86	41.5597	39.4362
415.067	40.1267	38.287
415.273	41.2009	39.4128
415.48	40.7949	39.2564
415.686	40.9788	39.326
415.893	41.3813	38.7598
416.099	42.2547	38.6814
416.305	41.9828	39.7956
416.512	42.2373	39.3427
416.718	42.0902	39.1268
416.924	42.2058	39.823
417.131	42.0515	38.2172
417.337	42.9503	39.3495
417.543	42.5699	39.3443
417.749	42.548	39.8137
417.955	42.2186	39.4222
418.161	43.0649	39.2903
418.367	43.1533	39.3015
418.574	43.7173	40.1809
418.78	42.9709	39.8948
418.986	42.8694	39.8248
419.192	42.9728	39.5343
419.398	43.3227	40.0425
419.604	42.9963	39.9968
419.809	43.5522	39.9629
420.015	43.4109	39.8833
420.221	43.0206	40.3813
420.427	43.3253	39.7731
420.633	43.2373	39.9912
420.839	43.1441	40.2147
421.044	44.0098	39.9621
421.25	43.0822	39.8554
421.456	44.0008	40.558
421.662	43.9892	40.2319
421.867	43.9328	40.7569
422.073	44.1693	40.6296
422.278	43.7119	40.815
422.484	44.2	40.4009
422.69	43.7851	40.6972
422.895	44.7448	40.7236
423.101	44.4418	40.5467
423.306	44.2965	40.2966
423.512	44.673	40.2667
423.717	44.4893	40.3527
423.922	44.7361	40.7576
424.128	44.3292	40.5567
424.333	44.8206	40.7448
424.539	44.6498	40.8161
424.744	44.158	40.0628
424.949	44.8723	40.6806
425.154	44.7665	41.1188
425.36	44.9574	40.6348
425.565	44.6432	40.5859
425.77	44.9815	40.7965
425.975	44.8931	41.0884
426.18	44.6219	40.6565
426.385	45.0405	40.5911
426.591	45.4991	40.961
426.796	44.8418	40.8447
427.001	44.9065	41.4101
427.206	45.1241	40.9206
427.411	44.9328	40.8563
427.616	45.3937	40.9553
427.821	45.2442	40.9571
428.026	45.5227	41.2478
428.23	45.1263	40.9706
428.435	45.4431	41.118
428.64	45.6405	41.1556
428.845	45.3259	41.0141
429.05	45.204	40.9597
429.254	45.6312	41.2081
429.459	45.3938	41.3353
429.664	45.4663	40.9688
429.869	45.5879	41.0521
430.073	45.2178	41.0974
430.278	45.8541	41.5536
430.483	45.7531	41.2331
430.687	45.6615	41.3595
430.892	45.5681	41.372
431.096	45.5496	41.2635
431.301	45.7401	41.43
431.505	46.0338	41.2057
431.71	45.9713	41.2574
431.914	45.6287	41.1415
432.118	45.9898	41.5529
432.323	45.6896	41.2165
432.527	45.8387	41.2917
432.732	45.9755	41.331
432.936	46.0093	41.472
433.14	45.9167	41.2468
433.344	45.95	41.1799
433.549	45.8857	41.0324
433.753	46.1508	41.2916
433.957	46.1567	41.0827
434.161	45.9064	41.4137
434.365	46.1113	41.3411
434.57	46.2191	41.361
434.774	46.0375	41.4116
434.978	46.2495	41.4461
435.182	46.0266	41.134
