#Changer LED: 1
#Wavelength [nm]	White Std. spectrum	Dark specetrum	Sample spectrum0[s]	Sample spectrum1202.39[s]
380.024	24.359	-1.02585	4.07887	6.08282	
380.235	24.0726	-0.193432	4.75197	4.80871	
380.446	25.8356	1.81454	6.36209	5.85517	
380.656	23.6623	-1.25142	3.4804	4.49236	
380.867	23.9448	-2.52151	4.762	6.09719	
381.078	23.2686	-0.540008	4.34706	6.30781	
381.288	24.8582	-0.582091	4.56894	6.22997	
381.499	25.6991	0.238839	3.50807	5.45636	
381.709	24.5232	1.80808	4.07737	6.05738	
381.92	24.2125	0.408609	5.67618	5.28215	
382.13	24.7094	-1.71319	3.57259	6.57789	
382.34	24.3	0.312631	4.74695	5.68105	
382.551	24.6559	-1.73156	5.4883	5.45442	
382.761	23.3842	0.0374297	5.10291	5.40859	
382.972	24.0508	-1.43966	3.94385	4.72798	
383.182	24.168	0.963353	5.32245	5.51013	
383.392	23.3131	0.670344	1.56165	4.40752	
383.603	24.0415	1.50317	6.45656	6.09199	
383.813	23.2213	-1.9823	3.50298	4.53585	
384.023	23.1875	-1.70644	3.90505	3.41836	
384.233	22.1743	-1.55849	3.78959	3.99253	
384.443	24.4986	-0.925501	6.10347	5.95103	
384.654	22.8696	-0.18093	4.28503	5.40982	
384.864	23.3144	-1.23841	6.45289	5.76488	
385.074	22.0316	-0.296632	4.89952	7.75737	
385.284	23.0552	0.071268	5.22573	4.06762	
385.494	22.4729	-0.373806	4.19553	5.11224	
385.704	23.8658	-0.721318	6.13269	5.45293	
385.914	22.5033	-0.596644	2.9387	6.15345	
386.124	22.6759	-0.693344	4.81548	5.30971	
386.334	23.2634	0.0977828	5.56947	5.36679	
386.544	21.6136	0.885078	5.12873	3.97813	
386.754	22.9226	0.776739	3.41706	7.1919	
386.964	22.4129	-1.38198	5.08734	5.58816	
387.173	22.786	-2.52491	2.63674	5.0098	
387.383	22.5216	2.0658	5.39451	4.98428	
387.593	23.2688	0.123723	3.98035	2.82678	
387.803	23.0175	-0.91437	4.24244	5.26818	
388.013	22.2591	-0.482369	2.94216	4.57344	
388.222	23.4861	-1.36139	5.15336	4.49345	
388.432	22.7069	-2.04186	4.14826	4.12479	
388.642	23.542	1.71916	4.9271	5.48261	
388.851	21.7427	1.14343	3.4725	3.97092	
389.061	22.3699	0.36758	5.38242	4.59475	
389.271	23.2349	1.4632	4.218	4.72454	
389.48	22.538	-3.01965	4.91489	6.49036	
389.69	23.2237	0.0175075	4.58229	5.66192	
389.899	22.8647	-0.749376	5.98049	5.58779	
390.109	22.8668	-0.582982	3.38768	6.66629	
390.318	23.1861	0.541853	4.81958	6.63274	
390.528	23.7159	-1.289	4.38958	6.65985	
390.737	22.9443	0.174018	5.1869	3.76575	
390.947	22.5187	-0.232863	4.76765	5.42541	
391.156	22.9696	-0.754253	5.91825	5.1067	
391.365	22.9029	-1.53962	2.12705	4.35501	
391.575	24.1271	0.390828	5.34189	4.52202	
391.784	22.9584	-2.40846	4.25784	4.93995	
391.993	24.1792	0.147382	4.68153	4.03132	
392.202	23.6081	-0.0521535	3.62756	6.02083	
392.412	23.6562	1.00866	5.73875	4.75135	
392.621	22.8156	-1.69581	5.83267	4.49217	
392.83	23.5019	0.580186	5.02713	5.14778	
393.039	23.0136	-0.69292	5.28582	5.3632	
393.248	23.9109	1.02043	5.23589	4.80351	
393.457	23.9854	0.382653	6.27783	8.65897	
393.666	22.6484	-1.20119	4.78501	4.46586	
393.876	24.5296	-2.75633	5.8767	5.69179	
394.085	23.8252	-0.158132	6.93907	5.42686	
394.294	24.2637	1.46735	4.02008	6.59726	
394.503	24.955	1.66893e-08	4.83449	4.73542	
394.711	25.482	0.166377	4.93528	5.48053	
394.92	26.2543	-0.52243	3.62159	4.44508	
395.129	25.3377	0.59254	5.0811	7.17416	
395.338	23.9991	1.45422	4.94024	6.42795	
395.547	25.6211	-2.28219	2.44206	5.86356	
395.756	25.7831	-0.186641	5.57079	6.67523	
395.965	26.4282	-0.1766	4.47622	8.22073	
396.173	25.8691	-0.505845	7.70778	8.52009	
396.382	26.5047	-0.282435	4.94731	7.00673	
396.591	26.8665	-0.20387	6.15627	4.95315	
396.8	27.5299	-1.53938	4.60502	5.60622	
397.008	26.6898	3.14889	7.25524	5.66741	
397.217	27.4943	2.08682	5.78482	6.18019	
397.426	26.8685	1.85608	5.75147	6.46534	
397.634	27.5844	-1.68884	6.92575	7.68171	
397.843	27.3407	-1.43286	7.9434	7.34638	
398.051	28.6664	-2.0476	6.93562	6.57796	
398.26	28.4866	-1.44145	7.5712	6.54777	
398.468	28.8134	-0.686034	5.41666	7.70584	
398.677	29.107	-0.00907042	5.68171	6.0276	
398.885	28.5973	-0.600517	6.98783	6.58142	
399.094	31.1426	-2.02272	7.3559	6.77885	
399.302	30.8994	-0.599635	8.12839	7.79526	
399.51	30.8661	-0.264202	7.90177	7.56772	
399.719	30.4406	-1.50525	6.22897	9.61791	
399.927	30.2494	2.64111	7.09658	8.18227	
400.135	31.3447	0.877286	9.90603	9.14449	
400.344	32.6125	-0.941449	10.6728	9.02755	
400.552	31.8084	-1.89314	7.70974	10.1669	
400.76	31.9238	-1.20433	9.99347	8.35121	
400.968	33.0679	1.66529	9.49764	9.43969	
401.176	33.2181	-1.59403	10.0039	9.24048	
401.385	34.6712	-1.32577	7.68339	10.4873	
401.593	34.2643	0.797688	10.5573	9.2278	
401.801	35.5129	-1.68677	7.52699	8.69987	
402.009	36.3589	0.880822	9.61337	9.94633	
402.217	36.214	0.691697	9.76749	11.9105	
402.425	35.9042	-0.850125	8.76352	8.64293	
402.633	35.0378	-2.3577	8.76022	9.76156	
402.841	38.4554	-1.33293	10.8689	11.6548	
403.049	37.8901	-0.424413	10.9595	11.8625	
403.257	39.0434	-0.460716	13.2614	11.7287	
403.465	39.8921	-1.81898	10.804	11.5202	
403.673	39.1184	-0.402821	12.9738	13.0633	
403.88	41.5436	-0.00886168	10.1584	14.353	
404.088	41.848	2.00757	14.4142	13.3186	
404.296	41.277	0.212403	12.2545	12.992	
404.504	43.236	0.824043	14.5201	14.5201	
404.712	45.655	-0.885229	12.4137	15.2768	
404.919	45.6841	1.7101	16.1558	13.7419	
405.127	46.5112	-0.286785	15.327	14.0814	
405.335	47.5438	0.397278	16.5446	16.084	
405.542	49.2237	1.4259	16.284	16.8313	
405.75	48.5515	1.07415	17.447	16.5591	
405.958	50.3481	-0.502459	17.1858	19.4284	
406.165	51.3623	3.81505	16.2872	16.6286	
406.373	52.985	0.501382	18.4095	18.9194	
406.58	55.0068	3.322	20.3114	18.6251	
406.788	55.1124	-1.62021	16.8997	17.7998	
406.995	55.6759	-0.823708	20.5955	19.8951	
407.203	58.0449	0.956923	21.6651	22.7563	
407.41	58.3435	-0.646581	22.8095	21.9978	
407.617	61.1505	2.06894	21.8879	21.3318	
407.825	61.2032	1.46774	23.3115	19.8367	
408.032	63.7831	-2.96608	23.2081	23.6212	
408.239	64.9258	-2.327	24.6679	22.667	
408.447	67.4156	-1.12332	25.0738	25.2378	
408.654	68.1357	-1.43349	26.6738	26.6738	
408.861	69.1628	-0.0326394	26.68	28.5295	
409.068	72.1256	-1.2675	27.6656	28.7219	
409.276	74.3074	-2.41084	30.3054	29.1728	
409.483	76.0349	-0.404613	32.013	28.3175	
409.69	77.4523	0.152782	30.9852	30.2347	
409.897	79.5389	1.41413	36.4981	30.9493	
410.104	81.6531	-0.599979	31.3269	32.2335	
410.311	83.5303	0.767507	37.3626	33.1787	
410.518	87.465	-1.17349	34.9353	34.7238	
410.725	89.0097	1.58946	37.5144	35.1421	
410.932	92.0061	-0.292786	40.0985	37.2234	
411.139	93.2782	-0.885277	42.77	36.9208	
411.346	96.4893	-0.361236	41.9976	40.8982	
411.553	98.5011	0.290981	42.9446	39.2484	
411.76	100.912	-0.429311	43.873	41.115	
411.967	105.663	-0.701303	46.7847	42.6029	
412.174	107.443	-0.796963	47.3406	45.5868	
412.381	109.925	1.05273	51.5785	45.9278	
412.587	112.476	-0.743503	51.6185	49.7278	
412.794	115.21	-1.6928	54.8723	49.8965	
413.001	119.917	0.443627	54.5253	52.8681	
413.208	123.913	0.0840556	57.0152	53.3728	
413.414	125.694	-0.487511	58.1941	54.6393	
413.621	129.116	-0.531934	60.9546	55.6606	
413.828	132.198	0.302546	62.7557	57.2594	
414.034	136.927	-0.796526	63.6588	58.4245	
414.241	140.078	-0.743442	65.1548	62.0192	
414.447	143.989	0.475086	68.1258	62.0929	
414.654	146.688	0.241859	70.9126	65.2188	
414.86	151.912	-1.33947	75.449	68.0832	
415.067	154.76	-0.0973617	75.0359	67.5965	
415.273	162.326	0.588959	79.6127	72.8673	
415.48	164.434	-0.858783	80.2384	73.1321	
415.686	170.749	-1.45694	83.6947	76.3219	
415.893	175.421	-1.60295	87.9464	79.9442	
416.099	180.259	2.69505	89.0218	80.9668	
416.305	185.439	-0.54392	91.8695	83.6856	
416.512	190.85	-0.408365	95.5802	87.186	
416.718	196.329	-0.309489	98.7925	88.0988	
416.924	200.667	1.0689	102.627	92.0631	
417.131	207.045	-0.662858	104.842	95.4265	
417.337	212.07	2.14258	109.435	97.9276	
417.543	217.178	0.452156	111.1	100.148	
417.749	222.637	0.684134	113.371	103.873	
417.955	229.149	0.714094	118.484	106.533	
418.161	235.874	0.731333	123.276	109.378	
418.367	240.301	0.777086	124.713	111.988	
418.574	246.607	-0.685104	128.443	112.784	
418.78	255.406	1.71256	132.62	118.98	
418.986	258.882	1.90915	136.546	122.007	
419.192	266.27	-0.226819	138.448	125.418	
419.398	274.395	0.50741	145.977	128.761	
419.604	281.917	0.509041	147.86	133.678	
419.809	289.017	0.834412	153.506	136.034	
420.015	296.311	-0.818184	158.117	139.051	
420.221	304.995	1.28693	163.26	142.446	
420.427	312.795	-0.56515	169.996	149.146	
420.633	320.048	0.427474	175.72	153.532	
420.839	330.137	0.944684	176.562	158.1	
421.044	338.554	0.511469	186.124	161.441	
421.25	346.696	0.729517	186.815	163.992	
421.456	354.069	1.15759	191.751	167.127	
421.662	364.439	-2.03499	197.468	175.18	
421.867	370.326	0.0458249	202.661	178.501	
422.073	382.971	1.79187	208.204	186.176	
422.278	393.188	1.15219	216.54	189.374	
422.484	400.263	-0.606006	220.197	193.528	
422.69	410.738	-1.39111	224.759	196.682	
422.895	422.257	-0.980549	231.879	202.616	
423.101	431.238	-0.329675	239.707	209.627	
423.306	440.852	-0.545494	246.469	212.51	
423.512	453.706	0.789027	251.522	219.11	
423.717	464.319	-1.23113	256.687	224.447	
423.922	477.027	1.26672	264.515	232.126	
424.128	482.489	-0.707338	270.216	238.027	
424.333	501.494	-0.00775238	280.05	241.649	
424.539	507.574	0.50914	285.789	249.173	
424.744	520.38	3.7121	291.087	250.372	
424.949	536.276	-0.95186	300.698	257.206	
425.154	548.442	0.247884	309.692	268.998	
425.36	560.388	1.11471	316.179	275.952	
425.565	577.101	1.83916	327.079	280.75	
425.77	587.789	-0.783946	331.64	289.183	
425.975	604.067	0.506467	342.73	297.096	
426.18	620.526	-1.09184	353.253	305.758	
426.385	637.544	1.62919	359.745	314.559	
426.591	650.041	-0.485017	371.513	319.908	
426.796	666.348	-0.367014	377.667	327.587	
427.001	680.343	0.733734	389.743	334.635	
427.206	697.731	1.8474	400.299	342.92	
427.411	715.258	-0.156443	409.195	352.746	
427.616	732.517	-0.188014	418.743	362.13	
427.821	748.194	-0.117289	431.746	372.241	
428.026	762.99	1.77271	438.462	378.179	
428.23	781.906	0.858594	452.825	388.222	
428.435	799.12	-1.23781	464.208	398.84	
428.64	815.998	1.03835	472.376	406.613	
428.845	838.02	1.95969	484.044	416.604	
429.05	848.628	-1.61033	488.294	420.465	
429.254	873.861	0.324571	509.18	434.4	
429.459	886.366	-0.452493	511.895	442.615	
429.664	916.509	0.936976	536.033	457.642	
429.869	929.593	-0.79068	543.678	464.738	
430.073	944.219	0.358934	554.561	473.534	
430.278	965.547	2.5912	564.601	482.559	
430.483	987.693	0.0682412	577.473	493.334	
430.687	1007.27	-2.35792	585.317	501.48	
430.892	1029.62	1.14134	603.889	514.043	
431.096	1049.83	-0.594551	617.033	524.389	
431.301	1069.58	2.32469	628.279	535.566	
431.505	1090.02	-0.283791	644.716	550.442	
431.71	1122.1	-1.45854	661.402	560.651	
431.914	1142.09	-0.618662	677.644	570.782	
432.118	1171.22	-0.744638	691.523	584.419	
432.323	1192.21	-1.33488	707.095	597.066	
432.527	1215.63	2.21518	721.748	608.725	
432.732	1248.62	0.405491	740.072	626.707	
432.936	1271.37	2.02193	755.612	637.178	
433.14	1303.05	-0.153518	770.862	656.942	
433.344	1328.72	-2.21307	792.535	667.103	
433.549	1361.61	-1.54857	813.338	684.969	
433.753	1388.78	0.238307	826.304	696.246	
433.957	1422.08	1.83199	848.572	718.338	
434.161	1451.56	2.34714	864.521	724.796	
434.365	1479.2	1.80856	884.615	748.246	
434.57	1503.07	3.05994	898.665	757.001	
434.774	1532.21	1.47403	917.336	771.109	
434.978	1564.83	2.95897	936.669	788.626	
435.182	1596.88	2.52549	961.982	800.911	
435.386	1629.13	3.16038	978.6	818.95	
435.59	1661.16	3.47146	999.181	835.741	
435.794	1691.31	5.2008	1016.85	852.344	
435.998	1726.51	2.38084	1044.27	866.884	
436.201	1772.78	4.62084	1065.22	891.264	
436.405	1792.57	3.22909	1083.2	901.825	
436.609	1833.17	1.72429	1103.64	921.32	
436.813	1869.81	-0.432422	1135.23	944.098	
437.017	1902.59	0.587033	1151.35	957.762	
437.221	1945	1.07829	1176.65	979.941	
437.424	1978.39	1.90448	1193.94	996.692	
437.628	2015.91	-0.596848	1222.2	1017.69	
437.832	2056.41	0.744467	1241.26	1040.93	
438.036	2086.45	1.07058	1264.07	1050.13	
438.239	2132.3	0.593141	1290.84	1076.52	
438.443	2167.14	-0.524826	1309.16	1096.58	
438.646	2196.14	-0.901063	1324.89	1111.44	
438.85	2235.36	1.16524	1352.47	1132.85	
439.054	2261.08	0.687706	1363.42	1139.96	
439.257	2298.49	-0.825813	1381.7	1161.55	
439.461	2327.24	1.79126	1400.43	1177.46	
439.664	2359.96	0.657318	1421.65	1198.2	
439.868	2390.11	-1.15448	1437.29	1213.31	
440.071	2411.49	-0.632469	1447.01	1219.11	
440.274	2434.71	1.15145	1466.25	1237.52	
440.478	2459.95	0.99824	1474.17	1245.41	
440.681	2487.39	-0.252677	1489.39	1261.11	
440.885	2509.27	0.742169	1506.4	1272.64	
441.088	2523.5	-0.616733	1508.05	1277.89	
441.291	2543.81	-0.0256675	1521.56	1288.91	
441.494	2555.14	1.46832	1526.93	1294.57	
441.698	2564.85	-0.0317966	1533.37	1300.26	
441.901	2590.85	1.09096	1547.77	1312.29	
442.104	2598.66	-0.222595	1545.3	1314.39	
442.307	2606.29	1.61819	1549.32	1324.13	
442.51	2613.2	-0.89988	1549.24	1327.42	
442.713	2619.66	4.76837e-09	1554.58	1327.63	
442.916	2621.68	2.67559	1547.63	1330.68	
443.12	2623.09	1.08536	1545.69	1331.36	
443.323	2611.63	0.81756	1538.54	1325.45	
443.526	2606.09	-0.551899	1530.3	1322.36	
443.729	2602.12	2.15931	1528.42	1316.72	
443.932	2593.62	0.219396	1513.71	1312.96	
444.134	2585.65	-1.53464	1507.01	1313.96	
444.337	2568.96	-0.168701	1493.35	1302.78	
444.54	2550.01	0.287034	1481.56	1294.05	
444.743	2524.17	-0.1305	1464.06	1277.09	
444.946	2504.88	0.63882	1448.38	1271.31	
445.149	2493.02	-0.323554	1437.65	1265.73	
445.352	2467.82	0.285523	1421.18	1251.15	
445.554	2445.75	-0.229646	1407.05	1239.24	
445.757	2423.14	0.52665	1385.72	1227.37	
445.96	2394.26	-0.179782	1371.24	1215.08	
446.162	2373.26	-1.3167	1356.84	1200.41	
446.365	2337.14	1.46624	1333.54	1185.49	
446.568	2311.73	-0.0681375	1311.73	1171.41	
446.77	2286.34	0.229348	1300.58	1158.24	
446.973	2248.22	-0.346177	1277.59	1141.45	
447.175	2220.21	-0.797777	1262.03	1120.82	
447.378	2183.35	-0.0185305	1235.91	1105.62	
447.58	2153.37	1.20693	1216.25	1085.02	
447.783	2126.78	0.217342	1197.68	1074.06	
447.985	2087.39	0.086725	1180.16	1053.06	
448.188	2062.58	0.565112	1160.86	1043.3	
448.39	2021.64	-0.0805394	1136.91	1019.96	
448.593	1993.47	0.384745	1118.31	1003.38	
448.795	1961.57	-0.111667	1101.84	989.742	
448.997	1926.65	0.341047	1082.03	977.301	
449.2	1894.65	0.440412	1068.97	957.416	
449.402	1876.12	-0.249225	1058.3	947.711	
449.604	1840.37	-0.0558963	1033.31	929.346	
449.806	1825.76	-0.412373	1028.46	921.74	
450.009	1796.61	0.124616	1011.18	901.44	
450.211	1764.68	0.541525	993.714	893.978	
450.413	1743.5	0.361587	984.73	879.309	
450.615	1723.71	-0.467519	970.155	869.69	
450.817	1702.13	0.0311827	956.207	859.374	
451.019	1684.75	-0.0812492	949.935	847.477	
451.221	1665	1.16097	935.02	837.96	
451.423	1647.43	0.0187757	926.68	830.423	
451.625	1628.08	2.12255	919.249	820.614	
451.827	1607.08	-0.49896	903.901	809.889	
452.029	1596.11	1.51827	903.347	804.304	
452.231	1582.72	-0.377047	894.452	797.824	
452.433	1566.2	2.07191	887.412	788.651	
452.635	1548.74	0.276192	875.563	779.649	
452.837	1535.81	0.0565402	873.692	770.098	
453.039	1523.64	-0.126026	859.16	767.497	
453.24	1503.62	-0.446283	852.745	753.997	
453.442	1492.46	0.0819346	846.422	750.075	
453.644	1479.67	-0.541788	840.086	744.076	
453.846	1469.81	0.769893	835.309	737.242	
454.047	1454.89	1.02198	827.836	731.673	
454.249	1452.28	-1.51583	823.535	725.735	
454.451	1439.94	0.734872	814.728	720.884	
454.652	1431.75	0.887838	814.915	720.17	
454.854	1421.69	-0.120531	809.208	711.937	
455.056	1418.01	-0.694339	801.936	708.954	
455.257	1404.79	-0.050844	799.621	707.446	
455.459	1400.62	0.0510362	792.328	701.59	
455.66	1397.78	1.21047	793.844	698.116	
455.862	1380.57	-0.12764	782.469	690.186	
456.063	1370.76	-0.632994	780.311	686.492	
456.265	1362.58	0.281318	775.047	684.471	
456.466	1347.27	0.445949	761.681	676.398	
456.667	1344.32	-0.876715	762.123	671.658	
456.869	1330.59	0.0127667	754.472	665.787	
457.07	1319.67	-1.17356	744.624	658.499	
457.271	1312.8	1.1546	743.694	656.705	
457.473	1300.76	2.19061	735.917	652.04	
457.674	1293.24	-0.409386	731.49	646.159	
457.875	1283.78	-0.671051	723.998	642.641	
458.076	1275.12	1.90019	719.932	637.868	
458.277	1267.11	-0.870204	709.907	633.466	
458.479	1253.59	-0.830375	707.448	626.646	
458.68	1246.44	0.634683	701.363	625.265	
458.881	1237.97	0.783523	698.815	619.863	
459.082	1225.32	0.570132	684.818	609.078	
459.283	1217.17	0.62131	681.453	603.352	
459.484	1209.25	-0.289179	676.424	600.295	
459.685	1195.99	0.33325	671.608	597.396	
459.886	1186.12	1.74176	664.534	591.235	
460.087	1179.56	1.43022	656.616	587.563	
460.288	1165.82	-0.658372	652.5	582.231	
460.489	1161.55	0.308087	646.031	578.508	
460.69	1151.36	0.742047	639.792	570.854	
460.89	1138.58	-0.17916	636.168	567.021	
461.091	1127.75	0.805057	629.989	561.389	
461.292	1118.9	1.45091	623.408	558.49	
461.493	1109.65	-0.428594	616.401	552.325	
461.694	1100.58	0.876364	611.308	547.148	
461.894	1088.33	2.14328	601.176	542.215	
462.095	1078.76	0.782405	597.957	534.05	
462.296	1063.85	-1.37258	588.013	527.607	
462.496	1056.23	-0.0946518	583.133	524.449	
462.697	1046.01	0.138707	578.078	520.746	
462.898	1039.81	-0.0503061	575.08	514.629	
463.098	1027.72	0.0313116	570.719	512.312	
463.299	1021.73	-0.156405	566.005	505.466	
463.499	1011.56	0.192579	556.921	497.366	
463.7	1001.75	0.528074	555.13	497.084	
463.9	993.69	0.385057	549.909	492.027	
464.101	986.269	1.79908	545.444	486.917	
464.301	976.945	-1.10277	539.503	482.783	
464.501	970.495	2.33885	535.491	482.272	
464.702	963.297	-0.275939	531.929	474.104	
464.902	958.013	0.894206	531.273	472.761	
465.103	953.512	2.20267	529.896	472.846	
465.303	946.803	0.329011	523.956	469.791	
465.503	943.592	-1.30245	523.693	466.402	
465.703	937.062	1.60681	516.829	464.199	
465.904	935.523	-1.50902	518.775	461.646	
466.104	932.608	0.635477	515.017	459.135	
466.304	929.123	0.175117	514.301	459.692	
466.504	927.014	-0.271139	508.804	455.761	
466.704	917.65	-0.755287	506.598	453.508	
466.904	916.21	0.953056	507.291	451.886	
467.104	914.182	0.543033	504.583	450.26	
467.304	908.807	0.821442	504.445	446.626	
467.504	904.123	1.78386	498.68	442.714	
467.704	904.715	0.384801	499.731	444.595	
467.904	899.01	0.129147	498.907	443.178	
468.104	901.653	1.57365	499.872	444.109	
468.304	901.707	-0.327557	498.654	440.239	
468.504	898.504	0.582472	498.169	440.194	
468.704	898.833	0.116074	494.054	440.254	
468.904	898.094	-0.735269	498.991	438.336	
469.104	897.395	-0.0230201	494.21	437.657	
469.304	897.859	-0.815364	494.84	437.382	
469.503	897.189	0.429576	494.585	437.9	
469.703	898.173	-1.40147	496.257	438.101	
469.903	897.982	-0.44465	492.64	440.137	
470.103	897.733	0.442163	493.192	435.937	
470.302	897.273	-0.672907	492.119	435.516	
470.502	899.317	0.141189	495.957	439.463	
470.701	903.443	1.17324	496.691	439.872	
470.901	903.786	1.6198	498.482	440.851	
471.101	902.344	-0.223524	497.076	438.196	
471.3	908.543	0.301795	498.491	442.585	
471.5	907.841	0.734427	497.954	440.665	
471.699	908.545	0.638144	497.941	437.734	
471.899	908.956	-0.0995576	498.823	440.139	
472.098	911.906	0.624393	500.459	441.151	
472.298	914.058	0.606951	500.7	443.021	
472.497	916.073	1.46566	500.809	441.981	
472.696	918.856	-0.0329897	500.111	440.546	
472.896	920.283	0.274513	501.579	444.993	
473.095	922.292	-0.229659	502.465	443.319	
473.294	920.618	0.332806	504.085	445.58	
473.494	922.867	0.201404	501.92	444.329	
473.693	924.642	0.467326	506.992	445.552	
473.892	932.123	-0.418199	506.959	448.755	
474.091	931.422	1.87545	507.142	447.662	
474.29	935.212	-0.601165	505.45	451.146	
474.49	939.117	-0.827173	509.978	448.454	
474.689	936.157	0.359992	507.897	448.633	
474.888	937.851	0.359135	509.332	452.102	
475.087	943.09	0.82564	506.841	449.583	
475.286	945.42	-0.0695638	510.282	448.817	
475.485	944.657	0.143757	508.29	452.402	
475.684	947.561	0.074513	512.983	454.757	
475.883	948.753	-0.143301	512.035	453.07	
476.082	950.416	-0.0264591	510.505	450.99	
476.281	953.431	-0.386002	508.289	452.328	
476.48	954.552	0.189611	513.541	452.514	
476.678	955.12	0.194625	511.571	453.938	
476.877	955.975	1.72608	510.5	451.582	
477.076	964.145	-0.567555	511.661	456.29	
477.275	960.808	1.14232	513.892	456.514	
477.474	967.587	0.30916	515.712	460.57	
