#Changer LED: 1
#Wavelength [nm]	White Std. spectrum	Dark specetrum	Sample spectrum0[s]	Sample spectrum95.091[s]	Sample spectrum125.088[s]
380.024	26.8946	-2.03234	4.80212	3.49369	3.23239	
380.235	26.6742	0.628653	3.14391	4.08141	3.34766	
380.446	26.4788	1.12329	5.66444	0	4.19872	
380.656	26.7383	-0.458534	4.70507	6.45769	4.87957	
380.867	26.4182	-1.75159	3.25551	6.10168	3.29914	
381.078	26.1229	-0.424292	2.86976	10.8387	4.92564	
381.288	27.0529	-0.248104	5.22292	3.56889	5.27127	
381.499	25.7086	0.0286607	4.26216	1.34705	3.31254	
381.709	25.827	1.09436	3.68213	0	5.19077	
381.92	25.4668	0.475127	2.78298	4.39968	2.46623	
382.13	25.0389	0.320046	3.67739	6.64566	4.60239	
382.34	26.081	-0.28421	4.36042	7.65473	4.64463	
382.551	27.705	-1.89154	4.7756	3.77367	4.96444	
382.761	24.2544	0.25265	3.32126	4.52899	3.81034	
382.972	26.836	-1.48671	4.16529	0	3.36862	
383.182	25.4868	0.514412	5.25947	0	4.02114	
383.392	25.8362	0.0931034	2.49455	4.57138	3.62048	
383.603	25.5262	-0.230548	3.89164	6.62132	5.16303	
383.813	26.0257	-1.19669	5.59978	8.61434	5.84764	
384.023	25.843	-1.11329	2.52833	5.89498	3.40558	
384.233	24.5895	-0.89317	3.99921	6.50738	3.83881	
384.443	24.435	-0.943648	1.86431	2.05062	3.92461	
384.654	25.9545	-0.606117	3.84718	1.65551	3.60594	
384.864	25.4412	-1.22046	3.67275	4.47802	4.50913	
385.074	25.9598	-1.24046	3.16108	4.2697	4.68918	
385.284	24.2311	0.614686	2.89111	7.91075	3.65605	
385.494	25.7303	-0.436107	5.51215	7.70752	5.89783	
385.704	25.442	-1.40702	4.18839	6.7234	6.66403	
385.914	24.8988	-0.694601	3.51931	6.25141	3.84465	
386.124	25.067	-0.675566	3.14731	0.257782	5.0703	
386.334	25.4235	-0.737815	4.05235	7.99152	4.67283	
386.544	22.596	2.3012	2.39384	5.19541	4.92339	
386.754	23.8406	0.626687	4.62513	0.926791	5.74905	
386.964	24.6896	-1.38198	3.88017	5.55449	3.94159	
387.173	26.2026	-2.77211	3.71556	4.42301	4.65725	
387.383	25.9411	0.923015	3.50687	3.35802	3.34981	
387.593	24.9214	-1.29025	4.3798	10.216	4.73329	
387.803	24.1693	-1.38035	2.17456	10.4273	2.93653	
388.013	24.4342	-0.692857	3.26841	0	2.50832	
388.222	23.0118	0.298627	3.61455	8.72166	2.97046	
388.432	24.8192	-1.18815	3.03815	1.48739	4.68513	
388.642	24.5595	0.552588	3.60089	9.89396	3.93887	
388.851	23.8009	0.897151	4.01079	5.54123	4.34503	
389.061	25.2755	-0.761415	2.10454	1.95167	2.06195	
389.271	24.3455	1.85103	2.5556	6.69016	4.95136	
389.48	25.7064	-1.4967	4.52686	0	3.06283	
389.69	24.8694	-0.455195	4.30217	5.45358	4.93069	
389.899	24.041	0.383402	3.10614	7.6419	3.00796	
390.109	25.1204	-0.600384	2.63125	5.44696	3.1684	
390.318	24.3484	0.323364	4.56205	5.85551	3.63566	
390.528	24.8307	-0.383217	4.57538	7.79498	5.01085	
390.737	24.1798	0.139214	2.54994	2.94961	4.0871	
390.947	24.8645	-1.32818	3.78732	10.4961	4.84182	
391.156	25.057	-0.70163	2.82582	3.97298	3.99871	
391.365	24.8079	-0.739366	3.26423	9.03766	3.92473	
391.575	24.5787	0.68612	2.39476	5.00259	3.72647	
391.784	24.9423	-1.70672	5.73526	7.81451	5.79302	
391.993	24.1619	0.572187	2.87943	0	3.56605	
392.202	25.7725	-0.843147	3.96134	1.11261	3.06315	
392.412	24.6217	0.517264	4.04155	0	3.89097	
392.621	24.5893	-1.83425	5.71846	8.46175	6.32757	
392.83	24.5757	0.484932	5.78686	8.14859	4.49832	
393.039	25.5861	-1.26458	5.09412	2.79766	4.22797	
393.248	24.1011	1.47011	5.10214	0	3.02669	
393.457	26.5335	0.44353	3.7616	8.48794	5.03711	
393.666	24.9551	-0.461325	5.68097	8.4083	3.6906	
393.876	26.3411	-1.94156	6.5366	0	5.46296	
394.085	26.452	-0.307479	3.50995	6.68548	3.76706	
394.294	25.9058	0.620131	5.03791	6.1489	4.75143	
394.503	25.4299	1.72346	4.29342	7.89628	5.02618	
394.711	25.4557	-0.674266	6.00593	2.61825	5.39179	
394.92	26.5996	-0.699524	5.01119	5.33941	4.71603	
395.129	27.2392	0.654447	5.14124	0	4.8376	
395.338	27.3482	1.53354	5.24695	6.06366	5.60066	
395.547	28.1886	-2.5318	5.63713	2.93297	5.35245	
395.756	26.6719	0.542147	4.78749	5.06597	6.63612	
395.965	26.0132	-0.47682	3.94936	0	6.18218	
396.173	27.0672	-0.399352	4.57095	9.8418	5.60098	
396.382	27.811	-0.988521	3.47395	4.12178	5.09265	
396.591	27.8504	0.36342	4.0703	10.8494	4.46859	
396.8	27.6641	-0.510144	5.61517	9.81804	6.65753	
397.008	28.2419	2.39066	3.20242	0	3.63059	
397.217	29.7594	0.847212	4.31157	9.30149	6.48994	
397.426	28.7425	1.23144	3.23267	9.64626	4.38142	
397.634	28.6031	-0.473591	4.43448	8.38167	5.99763	
397.843	29.5437	-1.56719	4.32305	12.6002	4.4126	
398.051	28.5055	-1.60053	6.18692	11.4719	6.79256	
398.26	28.4686	0.477479	4.12734	8.83787	5.20843	
398.468	30.4382	-0.388151	6.71832	10.6335	6.57148	
398.677	30.1682	0.0725634	5.87884	4.81639	5.33038	
398.885	32.0003	-1.29202	7.37908	5.65032	6.42614	
399.094	31.0242	-0.33712	3.79883	8.81069	5.75291	
399.302	30.2997	-0.47244	5.75105	4.2247	5.93275	
399.51	30.2284	-0.327975	4.69369	10.6501	7.35879	
399.719	33.3514	-2.12187	6.45688	10.7635	6.4871	
399.927	33.0093	1.36168	5.29624	7.41157	5.93596	
400.135	32.5053	0.932117	5.50985	8.18801	7.33753	
400.344	32.6948	-0.383892	6.43476	6.5353	6.41343	
400.552	34.671	-1.69194	3.50033	1.43586	5.18129	
400.76	32.7175	-0.0638658	5.97297	9.10543	6.39874	
400.968	36.2338	-0.311098	8.68939	6.15791	7.15037	
401.176	32.3753	-0.650437	5.96692	8.59309	7.43269	
401.385	35.3021	-1.03319	7.90404	7.85406	8.95125	
401.593	35.5243	1.40502	7.36351	2.0758	8.57213	
401.801	36.2384	-2.22182	6.66849	7.34561	6.94659	
402.009	35.6688	1.18956	7.37348	6.10219	6.74147	
402.217	37.1514	0.664393	8.49453	5.23324	7.25069	
402.425	37.9843	-1.05813	7.33881	3.14727	8.45422	
402.633	37.086	-2.75824	5.79321	10.596	7.86508	
402.841	39.9334	-1.37826	7.05332	18.6972	10.0226	
403.049	40.1747	-0.297992	8.09695	18.1504	10.0535	
403.257	39.8926	0.180673	7.7328	13.8757	8.57594	
403.465	40.9405	-1.26343	8.00471	12.5447	8.81116	
403.673	41.4279	1.6829	10.8254	9.27384	10.8254	
403.88	42.412	1.16088	10.2736	14.4977	8.5013	
404.088	43.5091	2.68268	10.0615	10.5353	10.2096	
404.296	43.87	1.70807	10.8945	9.74398	13.0185	
404.504	44.0337	1.70945	11.7821	9.06448	12.571	
404.712	46.9171	-0.420703	11.8702	6.93283	11.4028	
404.919	46.7398	1.4309	11.1273	9.61495	12.2906	
405.127	47.9365	0.0869044	11.8248	11.8538	11.2454	
405.335	48.3729	-0.578644	13.7694	18.7498	13.3376	
405.542	49.8113	0.509866	15.7828	11.6059	14.1409	
405.75	51.7567	0.687454	14.7316	21.0619	15.1039	
405.958	51.6426	0.0681301	12.8681	19.8514	14.6281	
406.165	51.9085	2.87622	14.7282	19.1947	14.7566	
406.373	54.7611	-0.577864	14.6109	10.0786	14.5259	
406.58	54.9563	3.1618	13.7517	14.7635	14.6792	
406.788	57.6439	-2.01682	15.3273	18.5058	15.8055	
406.995	56.8358	-0.0840518	15.2162	12.3304	14.4877	
407.203	59.4132	0.411309	17.1043	22.7563	17.8877	
407.41	60.829	0.11756	17.4241	13.1416	18.2078	
407.617	61.868	1.60176	18.7206	20.0554	18.804	
407.825	64.0135	0.758889	18.8054	20.1397	18.722	
408.032	64.725	-2.10683	20.1154	17.1686	18.0498	
408.239	66.4634	-1.65275	18.7859	22.9247	19.3615	
408.447	68.7931	-0.664153	20.4357	14.5868	19.6977	
408.654	70.5686	-0.589778	21.587	19.4299	21.0136	
408.861	74.1729	-0.146877	20.7913	23.1576	23.2664	
409.068	75.1969	-0.203125	23.1481	26.8044	21.9294	
409.276	76.9286	-1.22969	23.3183	20.2171	22.6441	
409.483	79.0614	0.194214	23.5754	26.2998	23.3597	
409.69	81.1512	0.715661	25.7933	20.0305	25.7933	
409.897	82.8763	1.0909	25.7695	30.1332	26.4699	
410.104	85.381	-0.639978	28.455	25.0951	27.0684	
410.311	88.3752	0.59162	29.4317	32.683	28.9787	
410.518	90.1609	-1.17349	31.2113	28.0925	29.9426	
410.725	93.5488	0.482373	31.0327	27.606	31.349	
410.932	95.385	-0.166176	31.4204	28.7564	29.2311	
411.139	98.4555	-0.869469	32.7895	31.5775	32.1045	
411.346	101.814	0.0157059	35.7074	29.8177	34.2153	
411.553	104.439	0.157287	37.2797	40.6351	34.0029	
411.76	108.147	-1.01474	37.3423	33.7517	34.3761	
411.967	111.094	-0.187014	38.8964	45.0003	38.0392	
412.174	113.919	-0.71185	40.0261	43.0437	37.8338	
412.381	116.644	0.85147	42.3723	37.5731	38.8116	
412.587	119.275	0.252944	43.4068	50.3053	42.5381	
412.794	124.236	-1.40041	44.9156	41.8891	41.9917	
413.001	127.03	0.749577	45.0281	46.8638	45.0281	
413.208	131.081	-0.137546	48.7624	52.4049	46.8011	
413.414	134.248	-0.723649	50.0054	43.7084	47.5171	
413.621	138.561	-0.212774	52.3119	51.856	48.3351	
413.828	141.274	0.612656	50.9286	43.6423	49.2646	
414.034	147.524	-0.955831	53.835	53.3293	50.6995	
414.241	150.858	-0.493099	57.8949	56.7064	54.3041	
414.447	155.006	0.28656	57.3572	53.3604	53.8631	
414.654	159.929	-0.181394	60.1474	56.5195	58.9633	
414.86	165.034	-0.635678	61.3051	60.397	59.6655	
415.067	169.289	-0.209702	62.1192	56.1028	60.5465	
415.273	174.74	1.5328	65.8728	62.777	63.6831	
415.48	179.553	-0.112998	68.007	67.5048	66.3246	
415.686	186.269	-0.279309	70.2727	68.9139	68.6874	
415.893	190.849	-1.10626	72.1302	66.8874	70.5498	
416.099	196.663	2.8983	73.8026	79.3232	73.1502	
416.305	202.776	-0.664791	78.8784	74.8494	76.7128	
416.512	208.652	0.816731	83.062	81.8016	80.995	
416.718	216.401	-0.883177	83.6024	85.2379	80.432	
416.924	221.585	0.963512	87.5667	79.4371	83.4517	
417.131	228.784	-1.02442	88.0346	90.1939	87.2562	
417.337	236.554	2.87696	90.344	88.0727	86.9119	
417.543	241.112	0.0150719	94.1364	91.8254	91.1974	
417.749	246.484	0.0902155	98.2648	96.9366	92.3506	
417.955	254.781	0.721611	100.038	99.6124	98.4097	
418.161	262.549	-0.0904742	105.893	99.7102	98.3028	
418.367	269.883	0.165979	107.457	99.4594	102.251	
418.574	274.185	-0.195744	109.002	104.008	104.585	
418.78	285.24	-0.795658	116.275	107.99	109.834	
418.986	291.654	1.77332	117.014	111.455	112.159	
419.192	299.287	-0.839229	119.407	112.578	116.056	
419.398	307.763	0.787621	124.974	112.327	120.935	
419.604	317.725	-0.524236	127.868	119.511	123.512	
419.809	324.981	1.14542	131.458	129.106	126.755	
420.015	333.865	-0.424244	135.801	131.963	129.867	
420.221	344.38	0.18276	140.692	125.716	131.808	
420.427	354.525	-0.328398	144.398	141.929	138.289	
420.633	364.147	0.81678	148.394	136.257	139.133	
420.839	373.76	0.396158	153.384	140.484	147.264	
421.044	383.609	-0.0992402	158.191	153.738	151.499	
421.25	393.324	-0.851104	159.924	140.394	152.629	
421.456	404.401	0.693029	169.663	168.749	160.092	
421.662	414.824	-1.19345	173.16	156.457	166.734	
421.867	425.469	-0.374237	178.61	165.779	168.198	
422.073	437.814	0.750443	179.466	174.003	174.412	
422.278	450.713	0.522326	187.52	177.714	178.354	
422.484	460.81	-1.25804	192.204	180.927	183.74	
422.69	471.595	-1.03951	195.316	182.297	187.469	
422.895	484.353	-1.17972	203.438	188.909	193.939	
423.101	494.022	-0.452345	208.503	205.564	198.791	
423.306	510.007	-1.68258	213.557	192.506	202.596	
423.512	523.535	0.162447	221.472	204.737	208.992	
423.717	534.209	-0.838705	226.72	206.868	215.819	
423.922	549.268	1.93097	231.951	218.254	219.181	
424.128	559.051	-0.322915	234.939	220.305	224.047	
424.333	576.638	0.0465143	241.952	238.231	229.832	
424.539	587.964	0.370284	246.177	239.62	237.254	
424.744	600.444	3.35784	256.705	234.294	242.791	
424.949	617.223	-0.185729	265.164	248.474	249.738	
425.154	633.412	0.08521	269.227	250.765	256.523	
425.36	647.327	-0.015482	275.32	260.973	261.205	
425.565	667.717	0.318167	285.554	264.032	270.861	
425.77	682.584	0.527805	290.363	274.606	276.728	
425.975	703.607	0.903849	298.662	272.845	285.39	
426.18	718.776	-1.13084	308.95	284.41	292.364	
426.385	735.499	1.38754	315.614	300.387	298.75	
426.591	755.837	-0.899629	320.696	304.841	309.118	
426.796	774.375	-0.0624704	331.694	314.203	316.103	
427.001	792.987	-0.0156114	340.348	320.08	326.636	
427.206	812.936	0.704518	351.088	318.419	331.178	
427.411	832.911	0.195554	361.027	339.959	340.22	
427.616	852.078	-0.235017	365.843	350.567	351.664	
427.821	872.082	0.0703733	376.565	350.944	359.806	
428.026	888.238	1.32954	385.278	360.708	363.274	
428.23	916.424	0.241967	396.293	368.61	377.17	
428.435	930.64	-0.918628	403.654	383.854	385.411	
428.64	946.133	0.534674	412.477	386.879	394.137	
428.845	972.224	1.84351	423.924	393.224	403.81	
429.05	990.013	-1.26361	432.783	400.14	408.641	
429.254	1017.17	-0.448217	444.791	420.165	422.895	
429.459	1035.84	0.00766938	451.45	425.988	430.36	
429.664	1068.08	0.913745	464.606	419.951	441.839	
429.869	1089.11	-0.890474	473.579	434.198	451.829	
430.073	1105.62	0.336024	480.463	454.701	455.821	
430.278	1124.05	1.74773	494.844	458.978	466.678	
430.483	1153.13	0.204724	503.696	479.812	480.873	
430.687	1176.53	-1.54171	514.867	478.188	488.038	
430.892	1202.6	1.39833	528.26	489.636	504.451	
431.096	1225.2	0.255883	538.099	503.78	512.736	
431.301	1254.11	2.2497	548.887	515.241	519.691	
431.505	1276.48	-0.0149364	557.101	515.155	530.365	
431.71	1311.77	-0.373985	577.445	537.603	544.51	
431.914	1340.4	-0.708107	588.509	553.427	561.551	
432.118	1373.56	-0.253177	603.187	559.7	569.653	
432.323	1399.64	-0.808346	614.729	564.151	585.905	
432.527	1428.28	1.66877	623.333	586.019	599.876	
432.732	1468.16	0.184314	645.635	594.273	613.023	
432.936	1491.99	1.50179	658.274	611.779	624.575	
433.14	1529	0.160828	675.849	598.749	642.539	
433.344	1565.61	-1.28853	691.847	637.079	655.278	
433.549	1603.41	-1.09054	705.258	651.264	674.287	
433.753	1630.09	1.84146	725.656	660.038	683.531	
433.957	1672.94	1.26219	741.425	692.764	705.074	
434.161	1711.52	2.31114	757.476	707.39	718.717	
434.365	1741.57	1.70133	775.892	721.849	736.337	
434.57	1775.17	3.84618	784.261	736.78	746.272	
434.774	1805.81	3.13143	802.555	733.226	760.262	
434.978	1843.08	6.13583	821.575	766.191	777.859	
435.182	1884.16	5.64027	840.19	769.967	793.959	
435.386	1921.03	4.99928	863.064	793.564	813.491	
435.59	1955.37	5.30807	874.598	809.296	828.961	
435.794	1991.84	6.98988	889.2	834.881	845.283	
435.998	2035.62	3.27366	906.691	838.542	860.551	
436.201	2085.52	5.89556	936.867	865.511	883.477	
436.405	2115.56	4.10163	943.485	864.338	890.285	
436.609	2156.25	3.4211	967.752	897.819	919.344	
436.813	2198.49	0.652065	983.897	899.884	933.311	
437.017	2238.27	1.48123	997.505	919.757	951.68	
437.221	2281.03	0.443602	1021.76	944.503	969.913	
437.424	2318.77	1.73443	1036.27	965.848	985.981	
437.628	2358.76	0.271294	1053.55	985.931	1005.17	
437.832	2399.46	1.3265	1074.11	1020.58	1025.04	
438.036	2432.98	1.03018	1093.42	1023.62	1039.93	
438.239	2479.05	1.64462	1116.61	1032.54	1061.27	
438.443	2520.54	-0.0538283	1132.47	1067.4	1077.27	
438.646	2545.28	-0.387123	1141.04	1044.81	1088.46	
438.85	2584.19	0.765732	1160.91	1089.09	1106.14	
439.054	2603.31	0.700931	1172.42	1093.53	1112.75	
439.257	2646.26	-0.184982	1190.39	1116.42	1137.27	
439.461	2669.42	1.4093	1202.43	1091.6	1141.87	
439.664	2699.43	1.11744	1215.54	1134.91	1158.44	
439.868	2724.39	0.282059	1229.38	1161.05	1177.58	
440.071	2743.8	-0.560746	1236.64	1158.4	1183.24	
440.274	2765.81	1.01484	1248.19	1165.74	1188.38	
440.478	2777.31	0.0388925	1254.25	1169.81	1194.96	
440.681	2799.34	0.304508	1262.73	1179.22	1203.79	
440.885	2809.69	0.193609	1267.7	1170.1	1212.88	
441.088	2816.37	-0.212002	1272.05	1196.05	1219.43	
441.291	2832.95	0.455597	1273.86	1190.19	1223.87	
441.494	2830.46	1.57685	1280.06	1184.28	1218.07	
441.698	2827.64	-0.483308	1278.98	1194.48	1226.28	
441.901	2846.69	1.00164	1287.73	1227.74	1233.21	
442.104	2844.7	-0.642346	1284.38	1214.99	1236.21	
442.307	2839.98	1.37071	1283.01	1214.15	1232.85	
442.51	2839.61	-1.06465	1284.76	1193.72	1231.21	
442.713	2827.02	-0.0443278	1280.19	1219.36	1231.96	
442.916	2812.94	2.18338	1273.49	1209.75	1225.55	
443.12	2800.96	1.57124	1265.08	1201.72	1218.28	
443.323	2780.17	0.245268	1254.11	1196.05	1211.18	
443.526	2762.02	-0.464097	1248.75	1181.33	1202.3	
443.729	2743.14	1.1487	1237.9	1172.57	1195.9	
443.932	2720.95	0.789826	1226.33	1162.66	1185.94	
444.134	2700.21	-1.42815	1218.64	1154.62	1175.54	
444.337	2670.66	0.174949	1201.51	1133.78	1163.08	
444.54	2639.22	0.0436792	1189.95	1130.53	1152.85	
444.743	2603.93	-0.335572	1170.22	1115.74	1134.2	
444.946	2568.02	0.310107	1153.33	1097.44	1119.05	
445.149	2549.06	0.746664	1142.91	1095.02	1107.57	
445.352	2509.63	0.12414	1127.99	1085.68	1096.39	
445.554	2484.09	-0.508946	1113.72	1069.65	1083.26	
445.757	2442.5	-0.508062	1097.24	1041.95	1065.45	
445.96	2407.98	-0.309969	1076.9	1018.87	1050.64	
446.162	2379.1	-0.757725	1068.6	1002.78	1035.22	
446.365	2337.01	1.49099	1043.93	996.872	1017.39	
446.568	2300.84	-0.768096	1028.74	992.07	1001.13	
446.77	2268.58	0.328526	1015.16	979.763	986.52	
446.973	2223.94	-1.26726	993.663	964.321	968.751	
447.175	2189.2	-0.284479	980.567	936.659	953.418	
447.378	2146.85	0.84005	960.715	920.442	933.598	
447.58	2114.49	1.0522	946.599	913.939	920.376	
447.783	2081.67	0.0931467	936.145	884.148	907.207	
447.985	2041.87	0.408846	914.655	882.03	889.422	
448.188	2014.35	0.378811	898.048	871.614	877.886	
448.39	1970.82	0.105321	884.069	842.87	856.851	
448.593	1943.01	-0.1117	868.394	827.747	846.095	
448.795	1912.76	-0.0434259	851.115	814.099	828.244	
448.997	1879.52	0.477466	841.087	796.854	819.962	
449.2	1850.91	-0.105451	824.027	788.69	805.749	
449.402	1831.73	-0.218072	817.877	782.778	797.067	
449.604	1795.95	0.813602	801.996	774.4	780.652	
449.806	1784.3	-0.74977	795.014	755.63	772.084	
450.009	1754.21	0.735232	783.807	747.232	763.1	
450.211	1730.44	1.07682	771.897	737.164	748.576	
450.413	1710.16	0.299244	761.195	738.149	744.238	
450.615	1691.16	-0.536088	755.477	730.688	733.015	
450.817	1673.76	0.224515	744.125	727.224	727.578	
451.019	1658.08	-0.249998	735.739	710.656	718.906	
451.221	1637.12	1.74145	729.697	712.553	709.411	
451.423	1631.06	-1.00137	726.064	694.124	704.722	
451.625	1610.5	0.713779	720.026	686.111	701.409	
451.827	1590.03	0.243243	710.324	689.388	689.159	
452.029	1585.34	1.73158	704.881	678.51	688.339	
452.231	1576.32	-0.816936	698.811	666.343	682.242	
452.433	1560.92	1.30593	690.145	651.24	672.984	
452.635	1545.96	0.175759	687.874	652.241	666.72	
452.837	1535.68	0.804127	682.291	644.074	661.937	
453.039	1523.83	-0.0504105	679.606	656.963	659.862	
453.24	1505.94	-0.18857	673.651	648.236	652.049	
453.442	1498.98	0.579845	663.687	640.577	645.073	
453.644	1486.81	-0.0944979	664.23	642.831	642.327	
453.846	1475.46	0.649992	657.163	635.433	634.844	
454.047	1464.55	0.902121	654.705	632.015	632.898	
454.249	1462.34	-0.608868	648.72	620.412	631.321	
454.451	1451.95	0.405446	646.567	607.416	626.632	
454.652	1440.69	1.16687	640.495	609.526	620.349	
454.854	1433.14	0.444063	634.19	600.526	615.328	
455.056	1428.48	-0.293024	638.762	602.176	614.874	
455.257	1414.01	0.851637	628.044	598.936	609.783	
455.459	1412.06	0.0765542	627.077	586.673	605.514	
455.66	1405.75	1.108	623.247	591.779	603.435	
455.862	1392.25	-0.57438	616.967	593.418	599.672	
456.063	1384.23	-0.639388	612.879	573.876	591.673	
456.265	1370.78	0.690509	606.495	577.617	591.214	
456.466	1357.87	-0.17838	602.634	573.733	580.931	
456.667	1353.51	-0.735929	600.71	576.456	581.341	
456.869	1337.51	0.185117	589.267	550.499	572.649	
457.07	1323.42	-1.35215	585.901	554.904	570.743	
457.271	1314.05	0.631523	582.268	545.674	564.641	
457.473	1304.36	2.15868	577.312	549.977	557.279	
457.674	1295.61	0.543716	572.776	545.015	554.013	
457.875	1288.35	-0.786088	572.046	545.673	551.744	
458.076	1276.52	1.38196	561.014	530.901	544.401	
458.277	1263.69	-1.10695	558.965	539.13	540.111	
458.479	1249.81	0.1022	552.593	527.384	537.54	
458.68	1244.09	0.230794	546.695	527.377	531.971	
458.881	1234.82	0.218359	541.365	520.857	524.453	
459.082	1219.97	0.00640599	534.974	506.553	519.493	
459.283	1207.1	0.653337	532.638	502.256	515.728	
459.484	1199.99	-0.790423	527.983	505.491	515.559	
459.685	1185.07	0.0256346	519.734	498.542	505.143	
459.886	1174.68	1.41518	516.99	498.484	503.457	
460.087	1166.84	1.11596	513.579	496.775	496.305	
460.288	1154.37	-0.255678	506.094	486.812	492.692	
460.489	1149.06	0.609756	502.849	480.256	491.446	
460.69	1132.27	1.08748	495.752	486.668	483.512	
460.89	1123.93	-0.76783	489.86	477.532	478.578	
461.091	1115.23	0.626155	485.304	462.409	471.695	
461.292	1101.08	0.728649	482.709	459.081	469.308	
461.493	1094.56	0.33264	478.441	456.862	460.998	
461.694	1081.81	0.761222	474.397	457.808	461.411	
461.894	1072.9	1.19284	467.738	451.217	454.194	
462.095	1060	0.674268	461.301	430.45	449.215	
462.296	1048.45	-1.1512	455.619	444.761	443.728	
462.496	1041.55	-0.0189304	453.338	442.737	440.949	
